Data from FLMS017661__3__16-29-27-614.txt Node

Date: Thu Oct 26 16:29:27 PDT 2023
User: eway
Spectrometer: FLMS01766
Trigger mode: 0
Integration Time (sec): 1.000000E-3
Scans to average: 1000
Electric dark correction enabled: false
Nonlinearity correction enabled: false
Boxcar width: 0
XAxis mode: Wavelengths
Number of Pixels in Spectrum: 2048
>>>>>Begin Spectral Data<<<<<
339.673	2170.21
340.054	2170.21
340.435	2170.21
340.816	2118
341.197	2108.66
341.578	2107.13
341.959	2108.86
342.339	2107.79
342.72	2116.67
343.101	2125.94
343.482	2136.63
343.862	2152.53
344.243	2167.73
344.624	2184.85
345.004	2201.44
345.385	2220.44
345.765	2239.59
346.146	2255.76
346.526	2276.53
346.906	2295.61
347.287	2314.07
347.667	2333.7
348.047	2345.83
348.427	2372.81
348.808	2402.88
349.188	2418.55
349.568	2433.69
349.948	2447.14
350.328	2459.96
350.708	2475.07
351.088	2486.46
351.467	2496.83
351.847	2503.76
352.227	2513.21
352.607	2519.05
352.986	2526.34
353.366	2533.98
353.746	2535.89
354.125	2539.38
354.505	2544.16
354.884	2543.81
355.264	2547.86
355.643	2550.07
356.022	2549.7
356.402	2550.57
356.781	2552.44
357.16	2548.68
357.54	2550.02
357.919	2547.51
358.298	2549.31
358.677	2544.51
359.056	2542.71
359.435	2540.69
359.814	2540.71
360.193	2540.43
360.572	2535.93
360.95	2536.54
361.329	2530
361.708	2528.53
362.087	2526.67
362.465	2527.09
362.844	2526.36
363.222	2524.81
363.601	2523.91
363.979	2522.23
364.358	2523.07
364.736	2522.78
365.115	2526.23
365.493	2523.78
365.871	2522.29
366.249	2523.15
366.628	2523.9
367.006	2522.61
367.384	2523.39
367.762	2524.48
368.14	2528.07
368.518	2527.77
368.896	2527.77
369.274	2529.14
369.652	2532.56
370.03	2533.05
370.407	2536.8
370.785	2537.59
371.163	2537.15
371.54	2539.88
371.918	2543.23
372.296	2544.49
372.673	2548.78
373.051	2554.43
373.428	2556.54
373.805	2560.26
374.183	2562.8
374.56	2566.87
374.937	2572.93
375.315	2579.24
375.692	2586.09
376.069	2594.56
376.446	2602.67
376.823	2609.91
377.2	2619.8
377.577	2631.25
377.954	2639.43
378.331	2654.47
378.708	2666.84
379.085	2684.71
379.461	2701.28
379.838	2723.21
380.215	2740.45
380.592	2767.04
380.968	2789.47
381.345	2827.25
381.721	2858.94
382.098	2900.96
382.474	2945.58
382.851	2991.32
383.227	3042.99
383.603	3106.77
383.979	3174.37
384.356	3252
384.732	3336.71
385.108	3430.47
385.484	3526.02
385.86	3641.03
386.236	3752.87
386.612	3913.86
386.988	4064.6
387.364	4239.18
387.74	4431.29
388.116	4658.15
388.491	4880.77
388.867	5140.81
389.243	5450.23
389.618	5738.65
389.994	6113.27
390.37	6468.06
390.745	6837.26
391.121	7405.63
391.496	7819.59
391.871	8422.48
392.247	8951.89
392.622	9604.22
392.997	10255.52
393.372	11057.82
393.748	11828.58
394.123	12800.58
394.498	13641.73
394.873	14764.62
395.248	15599.25
395.623	17016.68
395.998	17753.07
396.373	19196.25
396.747	20656.27
397.122	22418.6
397.497	23749.15
397.872	25741.22
398.246	26917.78
398.621	29601.6
398.996	30982.43
399.37	32889.43
399.745	35668.85
400.119	37648.17
400.493	39862.94
400.868	42938.68
401.242	44826.54
401.616	47368.94
401.991	50092.95
402.365	51724.12
402.739	54495.91
403.113	56471.71
403.487	57354.67
403.861	59203.65
404.235	59747
404.609	61282.3
404.983	61560.38
405.357	62472.93
405.731	63184.16
406.105	62824.2
406.478	63848.82
406.852	63830.05
407.226	63916.07
407.599	62884
407.973	63279.21
408.346	62558.69
408.72	61700.99
409.093	61656.91
409.467	60705.26
409.84	58688.87
410.213	57481.87
410.587	55950.39
410.96	54511.33
411.333	52604.44
411.706	50542.08
412.079	49335.68
412.452	45116.63
412.825	43115.23
413.198	42042.34
413.571	39721.93
413.944	37668.15
414.317	36286.33
414.69	34777.18
415.062	33217.04
415.435	32470.25
415.808	29589.56
416.18	29066.18
416.553	28596.2
416.925	26935.32
417.298	25726.21
417.67	25002.05
418.043	24390.46
418.415	22799.43
418.788	22009.49
419.16	21516.42
419.532	20424.01
419.904	20122.06
420.276	19308.09
420.648	18079.48
421.021	17659.23
421.393	16444.06
421.765	15952.74
422.136	15112.72
422.508	14384.08
422.88	13556.6
423.252	13447.12
423.624	12614.44
423.996	12016.55
424.367	11413.18
424.739	11123.43
425.11	10445.72
425.482	10082.59
425.854	9701.87
426.225	9267.09
426.596	8779.41
426.968	8661.57
427.339	8272.34
427.71	7947.1
428.082	7765.8
428.453	7577.2
428.824	7231.73
429.195	7103.43
429.566	7083.76
429.937	6815.44
430.308	6637.29
430.679	6429.39
431.05	6327.45
431.421	6185.55
431.792	6062.14
432.163	5898.9
432.533	5839.45
432.904	5702.43
433.275	5658.92
433.645	5425.73
434.016	5319.71
434.386	5205.32
434.757	5148.14
435.127	5015.45
435.498	4922.72
435.868	4765.65
436.238	4647.13
436.609	4541.91
436.979	4441.75
437.349	4355.3
437.719	4285.25
438.089	4165.47
438.459	4104.51
438.829	3977.16
439.199	3908.65
439.569	3848.64
439.939	3814.17
440.309	3702.45
440.679	3676.58
441.048	3550.66
441.418	3548.69
441.788	3493.76
442.157	3456.45
442.527	3386.11
442.896	3361.19
443.266	3320.7
443.635	3274.44
444.005	3248.53
444.374	3197.8
444.743	3172.74
445.113	3130.2
445.482	3130.56
445.851	3093.04
446.22	3063.64
446.589	3041.03
446.958	3009.71
447.327	2999.26
447.696	2974.45
448.065	2953.63
448.434	2938.93
448.803	2909.92
449.172	2899.98
449.541	2887.59
449.909	2862.53
450.278	2854.78
450.647	2840.67
451.015	2819.59
451.384	2811.02
451.752	2805.77
452.121	2783.46
452.489	2773.76
452.857	2762.25
453.226	2752.75
453.594	2743.7
453.962	2735.12
454.33	2723.13
454.699	2713.2
455.067	2701.2
455.435	2701.84
455.803	2690.28
456.171	2688.33
456.539	2681.75
456.906	2678.76
457.274	2671.14
457.642	2667.16
458.01	2661.78
458.378	2651.41
458.745	2654.48
459.113	2646.7
459.48	2643.27
459.848	2637.52
460.215	2637.55
460.583	2632.12
460.95	2631.87
461.318	2627.04
461.685	2623.42
462.052	2624.14
462.419	2620.65
462.787	2616.19
463.154	2615.28
463.521	2612.25
463.888	2607.25
464.255	2603.79
464.622	2605.86
464.989	2599.16
465.356	2599.28
465.722	2596.12
466.089	2596.63
466.456	2594.13
466.823	2587.69
467.189	2590.89
467.556	2587.91
467.923	2585.58
468.289	2584.79
468.656	2583.38
469.022	2581.8
469.388	2580.21
469.755	2581.24
470.121	2580.67
470.487	2577.21
470.854	2576
471.22	2574.17
471.586	2573.01
471.952	2574.22
472.318	2574.01
472.684	2572.63
473.05	2568.26
473.416	2570.52
473.782	2567.95
474.148	2566.35
474.513	2569.16
474.879	2567.74
475.245	2565.88
475.61	2565.54
475.976	2564.98
476.342	2564.87
476.707	2564.85
477.073	2562.48
477.438	2563.54
477.803	2566.53
478.169	2564.97
478.534	2562.95
478.899	2561.79
479.264	2563.52
479.63	2562.27
479.995	2561.09
480.36	2563.33
480.725	2560.93
481.09	2564.23
481.455	2560.97
481.82	2561.07
482.185	2560.38
482.549	2559.99
482.914	2558.88
483.279	2558.88
483.644	2559.79
484.008	2559.21
484.373	2559.61
484.737	2559.59
485.102	2560.8
485.466	2559.17
485.831	2555.18
486.195	2560.09
486.559	2557.6
486.924	2556.82
487.288	2558.77
487.652	2556.37
488.016	2556.83
488.38	2557.46
488.744	2557.73
489.108	2555.84
489.472	2557.36
489.836	2557.28
490.2	2556.82
490.564	2559.07
490.928	2557.19
491.292	2553.22
491.655	2555.35
492.019	2552.69
492.383	2552.54
492.746	2555.67
493.11	2557.51
493.473	2555.9
493.837	2555.94
494.2	2558.71
494.563	2556.11
494.927	2556.11
495.29	2557.74
495.653	2555.05
496.016	2557.1
496.38	2556.8
496.743	2555.61
497.106	2555.57
497.469	2554.96
497.832	2555.06
498.195	2553.11
498.557	2556.12
498.92	2556.47
499.283	2558.32
499.646	2553.96
500.008	2557.5
500.371	2555.42
500.734	2553.48
501.096	2555.92
501.459	2552.59
501.821	2555.58
502.184	2556.91
502.546	2555.85
502.908	2556.21
503.271	2556.21
503.633	2555.13
503.995	2553.71
504.357	2556.46
504.719	2555.75
505.081	2557.87
505.443	2554.63
505.805	2556.67
506.167	2554.98
506.529	2555.95
506.891	2554.82
507.253	2556.13
507.615	2558.94
507.976	2556.48
508.338	2556.27
508.7	2556.8
509.061	2557.7
509.423	2552.58
509.784	2551.69
510.146	2552.06
510.507	2554.63
510.868	2554.93
511.23	2557
511.591	2556.54
511.952	2556.85
512.313	2555.22
512.675	2554.11
513.036	2554.94
513.397	2554.98
513.758	2556.31
514.119	2556.13
514.479	2556.42
514.84	2555.72
515.201	2553.7
515.562	2558.14
515.923	2554.41
516.283	2556.57
516.644	2557.51
517.005	2557.09
517.365	2556.84
517.726	2555.74
518.086	2558.27
518.447	2556.4
518.807	2555.67
519.167	2557.24
519.527	2556.34
519.888	2556.69
520.248	2556.6
520.608	2555.5
520.968	2558.03
521.328	2556.92
521.688	2558.02
522.048	2559.09
522.408	2560.19
522.768	2559.2
523.128	2559.71
523.488	2557.18
523.847	2555.97
524.207	2560.29
524.567	2558.88
524.926	2559.16
525.286	2558.12
525.645	2560.17
526.005	2555.41
526.364	2558.98
526.724	2557.21
527.083	2558.28
527.442	2556.02
527.802	2557.89
528.161	2554.28
528.52	2556.44
528.879	2557.71
529.238	2559.01
529.597	2559.33
529.956	2560.85
530.315	2559.19
530.674	2559.37
531.033	2559.03
531.391	2557.61
531.75	2561.56
532.109	2559.33
532.468	2560.57
532.826	2559.02
533.185	2558.43
533.543	2559.02
533.902	2559.34
534.26	2559.99
534.619	2562.13
534.977	2560.2
535.335	2559.13
535.694	2561.92
536.052	2560.89
536.41	2560.33
536.768	2558.64
537.126	2562.24
537.484	2560.91
537.842	2558.45
538.2	2561.76
538.558	2560.61
538.916	2560.78
539.274	2560.03
539.631	2560.63
539.989	2561.17
540.347	2559.54
540.704	2559.39
541.062	2561.28
541.419	2560.64
541.777	2560.79
542.134	2559.26
542.492	2560.6
542.849	2561.75
543.206	2561.51
543.564	2562.64
543.921	2559.89
544.278	2558.15
544.635	2560.64
544.992	2564.18
545.349	2557.64
545.706	2559.19
546.063	2558.79
546.42	2558.46
546.777	2561.29
547.134	2558.85
547.49	2559.59
547.847	2561.37
548.204	2563.14
548.561	2562.46
548.917	2559.79
549.274	2560.95
549.63	2559.27
549.987	2560.41
550.343	2558.24
550.699	2563
551.056	2561
551.412	2559.23
551.768	2560.53
552.124	2559.91
552.48	2560.77
552.836	2562.42
553.192	2562.03
553.548	2562.02
553.904	2564.37
554.26	2559.89
554.616	2563.87
554.972	2561.03
555.328	2562.39
555.683	2559.95
556.039	2561.83
556.395	2562.09
556.75	2562.5
557.106	2561.06
557.461	2559.29
557.817	2558.74
558.172	2559.48
558.527	2560.41
558.883	2564.11
559.238	2562.48
559.593	2561.5
559.948	2560.28
560.304	2564.34
560.659	2559.41
561.014	2559.33
561.369	2559.66
561.724	2560.26
562.078	2561.18
562.433	2560.43
562.788	2562.22
563.143	2560.64
563.498	2559.8
563.852	2557.86
564.207	2558.31
564.561	2560.34
564.916	2562.88
565.27	2562.32
565.625	2562.04
565.979	2558.76
566.334	2563.64
566.688	2559.54
567.042	2560.93
567.396	2561.49
567.75	2561.04
568.105	2562.93
568.459	2560.91
568.813	2563.12
569.167	2560.75
569.521	2562.87
569.874	2561.17
570.228	2561.01
570.582	2561.94
570.936	2560.73
571.289	2562.79
571.643	2564.38
571.997	2561.07
572.35	2562.52
572.704	2563.12
573.057	2561.05
573.411	2561.62
573.764	2563.66
574.117	2563.52
574.471	2564.29
574.824	2565.6
575.177	2562.17
575.53	2561.2
575.883	2563.4
576.236	2562.34
576.589	2562.47
576.942	2560.13
577.295	2562
577.648	2561.24
578.001	2561.75
578.354	2560.49
578.707	2563.75
579.059	2560.12
579.412	2561.89
579.764	2560.91
580.117	2559.9
580.469	2561.79
580.822	2559.08
581.174	2558.17
581.527	2557.89
581.879	2558.54
582.231	2560.3
582.584	2561.45
582.936	2563.22
583.288	2563.44
583.64	2557.82
583.992	2560.87
584.344	2562.89
584.696	2559.51
585.048	2560.02
585.4	2559.82
585.751	2560.55
586.103	2559.37
586.455	2558.43
586.807	2560.71
587.158	2558.09
587.51	2559.42
587.861	2560.45
588.213	2560.38
588.564	2561.25
588.916	2557.95
589.267	2560.03
589.618	2558.33
589.97	2559.95
590.321	2560.08
590.672	2560.59
591.023	2559.77
591.374	2561.61
591.725	2560.15
592.076	2559.33
592.427	2558.15
592.778	2559.01
593.129	2556.91
593.48	2560.52
593.83	2559.28
594.181	2560.11
594.532	2557.49
594.882	2558.32
595.233	2560.33
595.583	2559.78
595.934	2558.76
596.284	2560.35
596.635	2557.22
596.985	2556.22
597.335	2558.9
597.685	2559.07
598.036	2558.39
598.386	2553.74
598.736	2557.98
599.086	2555.91
599.436	2553.86
599.786	2559.4
600.136	2558.01
600.486	2558.69
600.835	2556.55
601.185	2557.37
601.535	2557.97
601.885	2557.46
602.234	2557.93
602.584	2559.38
602.933	2556.86
603.283	2557.77
603.632	2555.64
603.982	2556.62
604.331	2558.13
604.68	2557.97
605.03	2558.91
605.379	2555.75
605.728	2558.37
606.077	2560.58
606.426	2557.73
606.775	2558.27
607.124	2559.38
607.473	2554.95
607.822	2556.15
608.171	2555.98
608.52	2557.59
608.868	2558.55
609.217	2558.17
609.566	2559.9
609.914	2555.44
610.263	2556.82
610.611	2555.4
610.96	2555.41
611.308	2557.64
611.657	2556.93
612.005	2558.89
612.353	2554.19
612.701	2555.2
613.05	2557.99
613.398	2558.76
613.746	2557.66
614.094	2554.75
614.442	2556.88
614.79	2558.25
615.138	2555.53
615.485	2555.8
615.833	2552.01
616.181	2555.63
616.529	2551.12
616.876	2553.85
617.224	2556.88
617.572	2556.69
617.919	2555.2
618.267	2556.43
618.614	2554.96
618.961	2553.76
619.309	2553.33
619.656	2554.12
620.003	2555.34
620.35	2557.65
620.698	2555.6
621.045	2553.08
621.392	2553.96
621.739	2554.32
622.086	2553.43
622.433	2554.76
622.779	2554.94
623.126	2555.59
623.473	2557.31
623.82	2555.42
624.166	2556.24
624.513	2553.57
624.86	2554.97
625.206	2556.72
625.553	2556.95
625.899	2553.28
626.246	2555.55
626.592	2553.31
626.938	2555.82
627.284	2554.73
627.631	2552.9
627.977	2554.53
628.323	2553.56
628.669	2554.04
629.015	2553.75
629.361	2553.73
629.707	2556.1
630.053	2551.98
630.399	2553.7
630.744	2552.64
631.09	2553.13
631.436	2553.67
631.781	2554.34
632.127	2555.81
632.473	2553.57
632.818	2553.69
633.164	2551.62
633.509	2551.25
633.854	2549.41
634.2	2550.92
634.545	2551.42
634.89	2552.72
635.235	2553.64
635.58	2552.97
635.925	2552.77
636.27	2551.61
636.615	2552.67
636.96	2554.23
637.305	2551.63
637.65	2554.05
637.995	2553.26
638.34	2554.69
638.684	2555.45
639.029	2551.97
639.374	2551.41
639.718	2551.7
640.063	2553.45
640.407	2551.34
640.751	2553.28
641.096	2551.65
641.44	2555.45
641.784	2550.95
642.129	2554.3
642.473	2552.54
642.817	2550.75
643.161	2551.65
643.505	2552.77
643.849	2549.6
644.193	2550.62
644.537	2549.7
644.881	2551.35
645.224	2551.7
645.568	2551.32
645.912	2551.03
646.256	2552.78
646.599	2550.53
646.943	2553.46
647.286	2552.24
647.63	2549.66
647.973	2552.43
648.316	2550.34
648.66	2551.54
649.003	2547.64
649.346	2550.2
649.689	2550.02
650.033	2553.76
650.376	2547.61
650.719	2548.58
651.062	2545.3
651.405	2549.17
651.747	2552.26
652.09	2546.63
652.433	2549.89
652.776	2550.89
653.119	2549.78
653.461	2550.27
653.804	2549
654.146	2548.57
654.489	2549.65
654.831	2547.84
655.174	2547.71
655.516	2550.71
655.858	2549.75
656.201	2549.91
656.543	2550.21
656.885	2548.69
657.227	2551.36
657.569	2549.84
657.911	2550.74
658.253	2548.06
658.595	2549.01
658.937	2547.33
659.279	2548.46
659.621	2548.34
659.962	2548.34
660.304	2548.73
660.646	2550.55
660.987	2545.88
661.329	2548.69
661.67	2548.25
662.012	2546.37
662.353	2549.64
662.695	2546.34
663.036	2548.59
663.377	2548.54
663.718	2548.37
664.06	2546.45
664.401	2548.86
664.742	2549.91
665.083	2549.49
665.424	2549.35
665.765	2548.56
666.106	2548.93
666.446	2547.33
666.787	2548.21
667.128	2550.52
667.469	2544.78
667.809	2543.96
668.15	2543.08
668.49	2543.35
668.831	2547.1
669.171	2548.48
669.512	2549.76
669.852	2547.54
670.192	2548.15
670.533	2546.15
670.873	2547.37
671.213	2545.45
671.553	2548.11
671.893	2548.76
672.233	2547.39
672.573	2547.65
672.913	2546.9
673.253	2548.84
673.593	2547.67
673.933	2546.17
674.272	2545.75
674.612	2547.15
674.952	2548.34
675.291	2547.64
675.631	2547.97
675.97	2547.44
676.31	2546.43
676.649	2544.48
676.988	2546.66
677.328	2546.89
677.667	2547.28
678.006	2546.14
678.345	2546.94
678.684	2546.39
679.023	2545.63
679.362	2546.49
679.701	2548.07
680.04	2546.51
680.379	2547.44
680.718	2546.66
681.057	2545.86
681.395	2545.9
681.734	2548.37
682.073	2547.12
682.411	2545.73
682.75	2546.84
683.088	2543.76
683.427	2545.12
683.765	2543.1
684.103	2548.25
684.442	2545.53
684.78	2544.52
685.118	2541.57
685.456	2543.54
685.794	2547.89
686.132	2544.41
686.47	2545.85
686.808	2545.19
687.146	2545.98
687.484	2546.29
687.822	2544.94
688.159	2545.82
688.497	2545.58
688.835	2546.05
689.172	2544.45
689.51	2549.58
689.847	2543.81
690.185	2545.66
690.522	2546.3
690.86	2542.67
691.197	2544.1
691.534	2545.28
691.871	2544.79
692.209	2545.08
692.546	2546.38
692.883	2544.28
693.22	2543.71
693.557	2545.39
693.894	2546.35
694.23	2542.52
694.567	2547.74
694.904	2546.49
695.241	2545.53
695.577	2543.38
695.914	2544.26
696.251	2545.67
696.587	2544.66
696.924	2542.42
697.26	2545.44
697.596	2544.51
697.933	2543.56
698.269	2544.81
698.605	2543.91
698.942	2543.18
699.278	2543.93
699.614	2544.4
699.95	2541.74
700.286	2542.85
700.622	2543.83
700.958	2543.87
701.293	2540.13
701.629	2540.71
701.965	2541.81
702.301	2542.27
702.636	2543.94
702.972	2542.45
703.308	2542.64
703.643	2545.96
703.978	2545.15
704.314	2542.39
704.649	2543.41
704.985	2545.14
705.32	2545.63
705.655	2542.67
705.99	2541.96
706.325	2542.18
706.66	2543.98
706.995	2542.7
707.33	2543.68
707.665	2541.96
708	2543.9
708.335	2543.45
708.67	2540.55
709.004	2543.54
709.339	2544.94
709.674	2542.1
710.008	2543.97
710.343	2543.55
710.677	2542.1
711.012	2542.69
711.346	2542.51
711.68	2541.71
712.015	2540.86
712.349	2544.07
712.683	2541.14
713.017	2542.11
713.351	2541.68
713.685	2540.67
714.019	2542.29
714.353	2543.92
714.687	2543.69
715.021	2544.16
715.355	2542.8
715.689	2542.52
716.022	2541.6
716.356	2543.45
716.69	2543.12
717.023	2542.03
717.357	2543.93
717.69	2542.27
718.023	2541.67
718.357	2538.41
718.69	2539.43
719.023	2539.04
719.357	2541.79
719.69	2542.13
720.023	2541.63
720.356	2540.21
720.689	2540.21
721.022	2543.46
721.355	2541.95
721.688	2541.88
722.02	2541.91
722.353	2540.03
722.686	2543
723.019	2540.2
723.351	2540.68
723.684	2540.95
724.016	2541.91
724.349	2541.19
724.681	2542.87
725.013	2542.65
725.346	2539.11
725.678	2540.98
726.01	2541.9
726.342	2544.3
726.675	2541.14
727.007	2540.66
727.339	2542.99
727.671	2543.11
728.003	2543.73
728.334	2539.77
728.666	2542.39
728.998	2541.34
729.33	2537.52
729.661	2540.48
729.993	2542.1
730.325	2542.46
730.656	2540.1
730.988	2541.83
731.319	2542.98
731.65	2543.66
731.982	2542.38
732.313	2541.39
732.644	2539.04
732.975	2540.88
733.307	2539.1
733.638	2540.95
733.969	2540.76
734.3	2541.1
734.631	2539.69
734.961	2539.69
735.292	2535.48
735.623	2538.86
735.954	2541.35
736.284	2541.27
736.615	2541.96
736.946	2542.37
737.276	2543.08
737.607	2541.76
737.937	2542.02
738.268	2542.41
738.598	2540.46
738.928	2542.65
739.258	2540.98
739.589	2539.41
739.919	2538.94
740.249	2543.2
740.579	2539.83
740.909	2539.38
741.239	2541.39
741.569	2541.59
741.899	2540.39
742.228	2540.74
742.558	2541.72
742.888	2541.5
743.217	2537.09
743.547	2541.23
743.877	2538.79
744.206	2541.87
744.535	2542.86
744.865	2539.72
745.194	2540.72
745.523	2538.78
745.853	2538.07
746.182	2540.62
746.511	2540
746.84	2538.57
747.169	2542.55
747.498	2539.82
747.827	2538.84
748.156	2539.68
748.485	2540.46
748.814	2539.61
749.142	2541.38
749.471	2541.62
749.8	2541.59
750.128	2541.36
750.457	2540.59
750.785	2539.86
751.114	2535.23
751.442	2539.44
751.771	2537.28
752.099	2538.31
752.427	2539.1
752.755	2540.02
753.083	2539.12
753.412	2538.95
753.74	2538.17
754.068	2540.67
754.396	2543.11
754.723	2539.83
755.051	2540.63
755.379	2541.56
755.707	2537.86
756.035	2539.22
756.362	2538.44
756.69	2539.71
757.017	2539.48
757.345	2539.23
757.672	2540.61
758	2539.09
758.327	2538.89
758.654	2541.43
758.982	2541.5
759.309	2539.52
759.636	2538.4
759.963	2538.62
760.29	2541.71
760.617	2539.24
760.944	2541.4
761.271	2541.32
761.598	2539.97
761.924	2540.78
762.251	2539.42
762.578	2538.77
762.905	2542.2
763.231	2538.18
763.558	2539.47
763.884	2539.52
764.211	2538.63
764.537	2538.71
764.863	2541.77
765.19	2539.11
765.516	2538.89
765.842	2538.87
766.168	2539.09
766.494	2538.98
766.82	2538.4
767.146	2539.71
767.472	2534.07
767.798	2537.48
768.124	2535.41
768.45	2535.35
768.776	2538.37
769.101	2538.26
769.427	2537.36
769.752	2538.12
770.078	2540.71
770.404	2539.93
770.729	2539.01
771.054	2538.01
771.38	2538.88
771.705	2539.54
772.03	2539.71
772.355	2539.13
772.681	2540.19
773.006	2541.04
773.331	2540.02
773.656	2539.72
773.981	2539.06
774.305	2537.88
774.63	2540.65
774.955	2541.79
775.28	2539.58
775.604	2536.46
775.929	2539.09
776.254	2538.54
776.578	2539.26
776.903	2537.38
777.227	2540.36
