Data from FLMS017661__3__16-17-35-241.txt Node

Date: Thu Oct 26 16:17:35 PDT 2023
User: eway
Spectrometer: FLMS01766
Trigger mode: 0
Integration Time (sec): 1.000000E-3
Scans to average: 1000
Electric dark correction enabled: false
Nonlinearity correction enabled: false
Boxcar width: 0
XAxis mode: Wavelengths
Number of Pixels in Spectrum: 2048
>>>>>Begin Spectral Data<<<<<
339.673	2228.41
340.054	2228.41
340.435	2228.41
340.816	2171.92
341.197	2165.63
341.578	2163.74
341.959	2164.39
342.339	2165.85
342.72	2173.67
343.101	2181.69
343.482	2194.45
343.862	2208.39
344.243	2224.94
344.624	2241.58
345.004	2259.54
345.385	2273.94
345.765	2292.88
346.146	2313.54
346.526	2333.73
346.906	2351.96
347.287	2367.99
347.667	2386.98
348.047	2407.35
348.427	2425.53
348.808	2450.77
349.188	2469.49
349.568	2480.82
349.948	2493.59
350.328	2506.78
350.708	2520.76
351.088	2530.02
351.467	2545.36
351.847	2552.29
352.227	2559.69
352.607	2565.71
352.986	2572.59
353.366	2577.01
353.746	2582.1
354.125	2584.62
354.505	2588.98
354.884	2589.47
355.264	2591.53
355.643	2594.03
356.022	2593.47
356.402	2595.37
356.781	2594.14
357.16	2592.29
357.54	2592.83
357.919	2588.89
358.298	2589.38
358.677	2587.55
359.056	2584.74
359.435	2583.97
359.814	2580.89
360.193	2580.15
360.572	2575.74
360.95	2574.99
361.329	2569.74
361.708	2569.31
362.087	2566.58
362.465	2564.97
362.844	2564.73
363.222	2562.26
363.601	2561.12
363.979	2560.96
364.358	2558.95
364.736	2558.93
365.115	2556.47
365.493	2556.06
365.871	2556.38
366.249	2554.45
366.628	2554.57
367.006	2555.21
367.384	2553.58
367.762	2554.61
368.14	2553.95
368.518	2551.35
368.896	2552.15
369.274	2553.67
369.652	2553.21
370.03	2555.2
370.407	2555.17
370.785	2552.73
371.163	2553.86
371.54	2555.93
371.918	2555.25
372.296	2557.34
372.673	2556.72
373.051	2556.02
373.428	2559.58
373.805	2559.14
374.183	2557.36
374.56	2557.4
374.937	2557.28
375.315	2559.6
375.692	2560.01
376.069	2559.8
376.446	2562.34
376.823	2562.57
377.2	2560.66
377.577	2563.25
377.954	2560.46
378.331	2564.74
378.708	2565.62
379.085	2566.78
379.461	2562.69
379.838	2566.12
380.215	2561.36
380.592	2564.45
380.968	2562.2
381.345	2564.36
381.721	2570.38
382.098	2567.59
382.474	2567.59
382.851	2570.05
383.227	2572.15
383.603	2567.72
383.979	2569.1
384.356	2572.08
384.732	2572.79
385.108	2570.48
385.484	2570.75
385.86	2572.78
386.236	2572.38
386.612	2570.67
386.988	2572.56
387.364	2571.46
387.74	2571.25
388.116	2572.45
388.491	2573.15
388.867	2574.77
389.243	2574.55
389.618	2573.47
389.994	2573.08
390.37	2574.22
390.745	2576.57
391.121	2576.12
391.496	2576.25
391.871	2572.04
392.247	2574.89
392.622	2574.67
392.997	2576.82
393.372	2574.89
393.748	2574.64
394.123	2575.18
394.498	2578.37
394.873	2576.64
395.248	2577.89
395.623	2579.68
395.998	2578.01
396.373	2577.45
396.747	2580.25
397.122	2578.12
397.497	2578.59
397.872	2578.38
398.246	2577.88
398.621	2581.33
398.996	2577.61
399.37	2578.03
399.745	2576.68
400.119	2576.11
400.493	2580.54
400.868	2580.87
401.242	2581.69
401.616	2580.64
401.991	2581.73
402.365	2581.74
402.739	2583.07
403.113	2582.77
403.487	2583.73
403.861	2584.86
404.235	2584.66
404.609	2587.42
404.983	2583.75
405.357	2584.5
405.731	2586.49
406.105	2583.69
406.478	2584.82
406.852	2584.79
407.226	2589.83
407.599	2584.29
407.973	2587.27
408.346	2586.97
408.72	2588.63
409.093	2589.43
409.467	2587.96
409.84	2587.5
410.213	2589.22
410.587	2590.2
410.96	2591.03
411.333	2590.39
411.706	2586.67
412.079	2588.48
412.452	2589.72
412.825	2591.3
413.198	2590.94
413.571	2592.26
413.944	2591.46
414.317	2591.21
414.69	2591.41
415.062	2592.81
415.435	2593.67
415.808	2596.4
416.18	2593.9
416.553	2596.06
416.925	2595.42
417.298	2598.72
417.67	2592.29
418.043	2595.71
418.415	2593.78
418.788	2597.11
419.16	2600.39
419.532	2599.78
419.904	2602.68
420.276	2606.06
420.648	2602.32
421.021	2605.78
421.393	2604.68
421.765	2606.82
422.136	2606.39
422.508	2609.9
422.88	2610.81
423.252	2612.54
423.624	2615.88
423.996	2613.12
424.367	2619.15
424.739	2617.45
425.11	2620.34
425.482	2620.94
425.854	2627.27
426.225	2628.45
426.596	2628.11
426.968	2632.44
427.339	2636.21
427.71	2638.53
428.082	2640.78
428.453	2644.72
428.824	2649.36
429.195	2653
429.566	2659.94
429.937	2664.33
430.308	2670.26
430.679	2672.84
431.05	2679.85
431.421	2686.74
431.792	2697.47
432.163	2701.38
432.533	2713.15
432.904	2722.77
433.275	2734.5
433.645	2743.86
434.016	2755.17
434.386	2769.79
434.757	2784.92
435.127	2800.6
435.498	2818.91
435.868	2830.57
436.238	2839.22
436.609	2861.2
436.979	2883.38
437.349	2905.41
437.719	2938.17
438.089	2955.77
438.459	2987.52
438.829	3002.82
439.199	3036.38
439.569	3071.23
439.939	3119.26
440.309	3137.5
440.679	3190.79
441.048	3196.34
441.418	3263.91
441.788	3307.62
442.157	3366.15
442.527	3393.42
442.896	3462.75
443.266	3510.03
443.635	3562.55
444.005	3636.62
444.374	3677.03
444.743	3753.7
445.113	3798.95
445.482	3935.3
445.851	3989.21
446.22	4076
446.589	4162.9
446.958	4233.3
447.327	4354.16
447.696	4443.36
448.065	4561.2
448.434	4704.9
448.803	4778.6
449.172	4954.03
449.541	5126.97
449.909	5177.75
450.278	5414.86
450.647	5598.94
451.015	5686.94
451.384	5878.97
451.752	6208.82
452.121	6332.58
452.489	6495.84
452.857	6724.48
453.226	7002.53
453.594	7325.7
453.962	7532.96
454.33	7732.3
454.699	8120.64
455.067	8290.45
455.435	8701.83
455.803	9016.27
456.171	9456.92
456.539	9815.78
456.906	10414.28
457.274	10843.53
457.642	11307.87
458.01	11914.26
458.378	11882.77
458.745	12933.69
459.113	13630.41
459.48	14262.78
459.848	14808.45
460.215	15488.1
460.583	16094.38
460.95	17288.08
461.318	18095.03
461.685	18644.76
462.052	20488.85
462.419	21344.89
462.787	22409.36
463.154	23666.5
463.521	24984.17
463.888	25928.18
464.255	27647.46
464.622	29082.08
464.989	30718.13
465.356	32192.49
465.722	33964.73
466.089	36031.69
466.456	37568.23
466.823	39168.18
467.189	41009.83
467.556	43463.35
467.923	45320.97
468.289	47316.45
468.656	48830.68
469.022	51049.82
469.388	52534.54
469.755	54294.54
470.121	55734.34
470.487	57087.43
470.854	58231.12
471.22	59384.52
471.586	60133.83
471.952	60980.56
472.318	61513.4
472.684	62366.57
473.05	62700.34
473.416	63032.04
473.782	63538.7
474.148	63849.46
474.513	63914.59
474.879	64044.86
475.245	64012.61
475.61	63708.64
475.976	63454.64
476.342	63242.1
476.707	62969.21
477.073	62577.22
477.438	62340.04
477.803	61774.29
478.169	61017.52
478.534	60192.73
478.899	59397.92
479.264	58676.19
479.63	57768.96
479.995	56689.53
480.36	55363.49
480.725	54068.83
481.09	52952.88
481.455	51321.92
481.82	49739.92
482.185	48611.85
482.549	47653.03
482.914	45893.53
483.279	44379.18
483.644	43533.45
484.008	42488.99
484.373	41564.37
484.737	40546.67
485.102	39660.86
485.466	39084.88
485.831	38237.29
486.195	37583.32
486.559	37090.92
486.924	36495.96
487.288	35704.75
487.652	35185.99
488.016	34444.22
488.38	33895.23
488.744	33454.53
489.108	32964.81
489.472	32368.73
489.836	31879.24
490.2	31237.35
490.564	30751.37
490.928	29863.25
491.292	29533.42
491.655	28850.21
492.019	28214.32
492.383	27479.08
492.746	26713.72
493.11	26151.9
493.473	25481.85
493.837	24756.32
494.2	23953.56
494.563	23190.36
494.927	22453.6
495.29	21768.72
495.653	20973.12
496.016	20209.54
496.38	19566.34
496.743	18795.95
497.106	18199.4
497.469	17547.66
497.832	16864.29
498.195	16260.65
498.557	15755.72
498.92	15151.77
499.283	14617.45
499.646	14137.87
500.008	13659.5
500.371	13159.05
500.734	12739.86
501.096	12330.91
501.459	11955.48
501.821	11609.15
502.184	11257.13
502.546	10937.11
502.908	10652.15
503.271	10385.45
503.633	10083.62
503.995	9843.57
504.357	9629.73
504.719	9336.74
505.081	9129.67
505.443	8934.03
505.805	8739.18
506.167	8604.63
506.529	8418.05
506.891	8276
507.253	8079.69
507.615	7917.99
507.976	7747.21
508.338	7634.73
508.7	7498.98
509.061	7338.24
509.423	7254.55
509.784	7091.8
510.146	6925.33
510.507	6810.14
510.868	6701.85
511.23	6593.94
511.591	6454.71
511.952	6329.3
512.313	6195.87
512.675	6088.08
513.036	5953.61
513.397	5884.68
513.758	5723.11
514.119	5624.67
514.479	5558.31
514.84	5448.43
515.201	5356.16
515.562	5292.79
515.923	5160.94
516.283	5074.19
516.644	4969.93
517.005	4876.87
517.365	4795.94
517.726	4744.34
518.086	4660.01
518.447	4574.29
518.807	4511.66
519.167	4439.77
519.527	4385.92
519.888	4318.43
520.248	4254.69
520.608	4203.83
520.968	4141.14
521.328	4086.64
521.688	4043.7
522.048	4002.11
522.408	3956.41
522.768	3924.49
523.128	3880.7
523.488	3843.22
523.847	3812.36
524.207	3778.25
524.567	3741.72
524.926	3717.02
525.286	3690.47
525.645	3657.89
526.005	3627.8
526.364	3602.32
526.724	3582.21
527.083	3554.23
527.442	3527.09
527.802	3507.27
528.161	3482.11
528.52	3458.74
528.879	3437.25
529.238	3416.03
529.597	3392.05
529.956	3375.33
530.315	3355.24
530.674	3335.98
531.033	3314.32
531.391	3294.78
531.75	3277.28
532.109	3259.23
532.468	3240.46
532.826	3223.71
533.185	3200.54
533.543	3180.75
533.902	3167.56
534.26	3145.18
534.619	3128.25
534.977	3111.89
535.335	3098.19
535.694	3077.14
536.052	3065.13
536.41	3046.18
536.768	3033.17
537.126	3016.54
537.484	3005.17
537.842	2986.37
538.2	2974.11
538.558	2959.81
538.916	2948.31
539.274	2935.54
539.631	2923.76
539.989	2915.98
540.347	2903.77
540.704	2892.96
541.062	2884.95
541.419	2873
541.777	2866.24
542.134	2854.13
542.492	2846.25
542.849	2839.56
543.206	2827.67
543.564	2822
543.921	2817.45
544.278	2808.15
544.635	2802.92
544.992	2797.89
545.349	2787.76
545.706	2781.16
546.063	2773
546.42	2771.16
546.777	2765.63
547.134	2765.19
547.49	2758.16
547.847	2750.5
548.204	2751.77
548.561	2744.29
548.917	2740.41
549.274	2734.17
549.63	2730.99
549.987	2730.27
550.343	2725.22
550.699	2720.33
551.056	2718.23
551.412	2716.54
551.768	2712.13
552.124	2709.53
552.48	2707.67
552.836	2705.83
553.192	2699.53
553.548	2697.32
553.904	2695.57
554.26	2692.34
554.616	2690.11
554.972	2687.25
555.328	2684.39
555.683	2683.39
556.039	2678.85
556.395	2676.45
556.75	2675.45
557.106	2671.14
557.461	2669.96
557.817	2667.86
558.172	2665.65
558.527	2664.48
558.883	2663.13
559.238	2660.94
559.593	2657.65
559.948	2657.7
560.304	2656.91
560.659	2654.9
561.014	2651.71
561.369	2652.43
561.724	2650.85
562.078	2649.4
562.433	2646.85
562.788	2646.49
563.143	2640.67
563.498	2641.1
563.852	2638.53
564.207	2638.34
564.561	2641.14
564.916	2639.38
565.27	2638.63
565.625	2635.15
565.979	2636.96
566.334	2637.81
566.688	2632.9
567.042	2633.09
567.396	2631.61
567.75	2630.8
568.105	2628.93
568.459	2627.12
568.813	2631.5
569.167	2629.39
569.521	2629.26
569.874	2628.43
570.228	2628
570.582	2624.48
570.936	2624.89
571.289	2625.45
571.643	2623.28
571.997	2624.29
572.35	2624.02
572.704	2623
573.057	2624.26
573.411	2622.38
573.764	2621.92
574.117	2621.98
574.471	2619.4
574.824	2620.93
575.177	2619.33
575.53	2618.97
575.883	2618.27
576.236	2616.86
576.589	2617.89
576.942	2616.46
577.295	2615.49
577.648	2615.34
578.001	2614.95
578.354	2617.08
578.707	2616.02
579.059	2616.07
579.412	2617.16
579.764	2614.62
580.117	2615.59
580.469	2615.53
580.822	2610.57
581.174	2613.1
581.527	2606.24
581.879	2609.5
582.231	2611.76
582.584	2611.53
582.936	2611.24
583.288	2610.9
583.64	2611.83
583.992	2609.86
584.344	2609.42
584.696	2610.16
585.048	2611.1
585.4	2609.66
585.751	2612.38
586.103	2608.93
586.455	2606.87
586.807	2610.18
587.158	2609.42
587.51	2606.48
587.861	2610.81
588.213	2608.38
588.564	2607.36
588.916	2608.13
589.267	2609.01
589.618	2610.71
589.97	2607.87
590.321	2607.35
590.672	2608.73
591.023	2603.95
591.374	2607.77
591.725	2608.1
592.076	2606.27
592.427	2606.39
592.778	2605.93
593.129	2605.68
593.48	2606.28
593.83	2606.91
594.181	2605.16
594.532	2607.52
594.882	2606.11
595.233	2604.72
595.583	2604.9
595.934	2606.55
596.284	2606.49
596.635	2605.92
596.985	2606.43
597.335	2605.46
597.685	2602.54
598.036	2606.53
598.386	2602.66
598.736	2603.81
599.086	2601.99
599.436	2601.53
599.786	2603.29
600.136	2606.04
600.486	2605.86
600.835	2602.09
601.185	2605.05
601.535	2607.14
601.885	2605.9
602.234	2606.82
602.584	2603.4
602.933	2605.15
603.283	2604.04
603.632	2603.66
603.982	2603.8
604.331	2604.33
604.68	2603.58
605.03	2606.69
605.379	2603.75
605.728	2605.39
606.077	2601.96
606.426	2603.96
606.775	2605.75
607.124	2603.34
607.473	2601.87
607.822	2604.99
608.171	2605.5
608.52	2608.27
608.868	2600.91
609.217	2602.79
609.566	2605.43
609.914	2602.66
610.263	2602.6
610.611	2603.45
610.96	2603.98
611.308	2604.49
611.657	2605.9
612.005	2604.35
612.353	2603.95
612.701	2604
613.05	2603.7
613.398	2604.53
613.746	2603.32
614.094	2602.75
614.442	2602.99
614.79	2605.98
615.138	2602.53
615.485	2606.9
615.833	2600.04
616.181	2601.18
616.529	2599.65
616.876	2599.47
617.224	2603.8
617.572	2605.3
617.919	2603.22
618.267	2604.56
618.614	2604.69
618.961	2605.2
619.309	2604.22
619.656	2604
620.003	2604.37
620.35	2602.76
620.698	2603.47
621.045	2601.13
621.392	2602.65
621.739	2604.97
622.086	2604.45
622.433	2603.75
622.779	2604.62
623.126	2605.2
623.473	2604.11
623.82	2604.08
624.166	2605.79
624.513	2603.4
624.86	2603.65
625.206	2605.45
625.553	2605.35
625.899	2602.72
626.246	2604.73
626.592	2603.17
626.938	2604.82
627.284	2601.54
627.631	2607.09
627.977	2603.38
628.323	2601.98
628.669	2603.51
629.015	2603.8
629.361	2603.61
629.707	2603.8
630.053	2605.89
630.399	2602.99
630.744	2601.74
631.09	2604.04
631.436	2603.15
631.781	2603.54
632.127	2607.56
632.473	2601.18
632.818	2605.64
633.164	2600.99
633.509	2603.5
633.854	2600.02
634.2	2598.54
634.545	2601.88
634.89	2603.6
635.235	2603
635.58	2601.92
635.925	2603.58
636.27	2604.88
636.615	2603.37
636.96	2603.4
637.305	2605.22
637.65	2601.89
637.995	2603.52
638.34	2604.86
638.684	2604.51
639.029	2602.39
639.374	2602.35
639.718	2604.57
640.063	2602.95
640.407	2601.49
640.751	2604.28
641.096	2603.36
641.44	2606.11
641.784	2603.28
642.129	2603.46
642.473	2605.56
642.817	2604.57
643.161	2603.17
643.505	2604.64
643.849	2604.16
644.193	2603.76
644.537	2604.46
644.881	2604.57
645.224	2603.57
645.568	2603.42
645.912	2603.51
646.256	2603.43
646.599	2604.69
646.943	2605.49
647.286	2604.39
647.63	2603.91
647.973	2604.1
648.316	2604.06
648.66	2602.87
649.003	2604.48
649.346	2603.1
649.689	2603.51
650.033	2604.03
650.376	2600.44
650.719	2600.77
651.062	2599.28
651.405	2599.57
651.747	2601.38
652.09	2603.74
652.433	2605.72
652.776	2602.55
653.119	2602.91
653.461	2601.28
653.804	2603.93
654.146	2604.29
654.489	2602.28
654.831	2602.73
655.174	2602.05
655.516	2605.52
655.858	2601.28
656.201	2603.58
656.543	2602.62
656.885	2601.93
657.227	2603.75
657.569	2602.18
657.911	2603.86
658.253	2601.72
658.595	2605.37
658.937	2603.37
659.279	2603.52
659.621	2605.68
659.962	2603.25
660.304	2604.89
660.646	2604.27
660.987	2603.65
661.329	2603.47
661.67	2604.44
662.012	2602.25
662.353	2603.55
662.695	2603.19
663.036	2603.03
663.377	2603.95
663.718	2604.48
664.06	2603.12
664.401	2603.81
664.742	2603.46
665.083	2604.12
665.424	2605.26
665.765	2602.35
666.106	2605.69
666.446	2602.2
666.787	2604.22
667.128	2603.97
667.469	2600.74
667.809	2600.73
668.15	2599.36
668.49	2599.98
668.831	2601.01
669.171	2602.99
669.512	2602.1
669.852	2602.04
670.192	2601.61
670.533	2603.92
670.873	2601.52
671.213	2604.02
671.553	2603.13
671.893	2603.16
672.233	2601.94
672.573	2603.97
672.913	2602.8
673.253	2602.74
673.593	2602.01
673.933	2601.23
674.272	2603.71
674.612	2599.8
674.952	2603.88
675.291	2601.04
675.631	2604.14
675.97	2603.57
676.31	2604.88
676.649	2600.96
676.988	2602.4
677.328	2601.01
677.667	2604.98
678.006	2602.44
678.345	2602.16
678.684	2601.95
679.023	2600.29
679.362	2601.9
679.701	2603.77
680.04	2603.17
680.379	2604.13
680.718	2601.85
681.057	2603.25
681.395	2602.08
681.734	2604.91
682.073	2600.58
682.411	2600.23
682.75	2602.53
683.088	2602.32
683.427	2601.69
683.765	2603.03
684.103	2604.12
684.442	2598.59
684.78	2600.95
685.118	2599.16
685.456	2599.35
685.794	2602.66
686.132	2600.03
686.47	2603.74
686.808	2602.75
687.146	2601.18
687.484	2602.81
687.822	2603.86
688.159	2602.17
688.497	2601.81
688.835	2602.26
689.172	2602.28
689.51	2599.94
689.847	2602.65
690.185	2603.31
690.522	2603.63
690.86	2601.8
691.197	2604.53
691.534	2604.04
691.871	2600.97
692.209	2603.41
692.546	2602.38
692.883	2601.43
693.22	2599.53
693.557	2601.99
693.894	2601.8
694.23	2602.19
694.567	2603.69
694.904	2603.46
695.241	2604.64
695.577	2602.71
695.914	2601.5
696.251	2602.34
696.587	2602.72
696.924	2602.92
697.26	2600.4
697.596	2602.05
697.933	2602.39
698.269	2601.07
698.605	2599.34
698.942	2601.76
699.278	2601.64
699.614	2602.29
699.95	2601.72
700.286	2602.28
700.622	2601.83
700.958	2602.98
701.293	2597.11
701.629	2596.89
701.965	2599.77
702.301	2598.43
702.636	2600.81
702.972	2602.64
703.308	2603.49
703.643	2601.33
703.978	2603.29
704.314	2601.56
704.649	2600.94
704.985	2602.36
705.32	2602.83
705.655	2599.72
705.99	2602.61
706.325	2601.71
706.66	2603.32
706.995	2601.79
707.33	2601.63
707.665	2600.42
708	2600.01
708.335	2602.03
708.67	2599.44
709.004	2600.1
709.339	2602.94
709.674	2601.39
710.008	2601.29
710.343	2603.13
710.677	2601.37
711.012	2602.68
711.346	2600.61
711.68	2600.61
712.015	2602.03
712.349	2598.47
712.683	2600.97
713.017	2600.89
713.351	2599.2
713.685	2600.26
714.019	2598.14
714.353	2600.5
714.687	2599.04
715.021	2601.29
715.355	2601.15
715.689	2600.96
716.022	2599.98
716.356	2599.64
716.69	2599.02
717.023	2600.87
717.357	2599.99
717.69	2598.58
718.023	2597.52
718.357	2596.51
718.69	2596.31
719.023	2599.31
719.357	2599.16
719.69	2600.89
720.023	2601.9
720.356	2601.21
720.689	2599.96
721.022	2599.01
721.355	2600.49
721.688	2600.81
722.02	2602.15
722.353	2601.44
722.686	2600.98
723.019	2600.85
723.351	2601.16
723.684	2600.38
724.016	2598.61
724.349	2599.7
724.681	2597.49
725.013	2599.61
725.346	2600.31
725.678	2599.2
726.01	2601.78
726.342	2600.56
726.675	2601.36
727.007	2600.88
727.339	2600.87
727.671	2600.09
728.003	2600.99
728.334	2599.95
728.666	2598.88
728.998	2600.2
729.33	2597.79
729.661	2599.82
729.993	2599.85
730.325	2600.19
730.656	2599.88
730.988	2597.6
731.319	2598.99
731.65	2599.38
731.982	2598.68
732.313	2600.19
732.644	2599.22
732.975	2598.98
733.307	2600.44
733.638	2599.63
733.969	2600.77
734.3	2599.12
734.631	2593.57
734.961	2596.54
735.292	2595.01
735.623	2597.89
735.954	2598.95
736.284	2601.29
736.615	2600.14
736.946	2598.06
737.276	2599.4
737.607	2598.63
737.937	2599.58
738.268	2597.43
738.598	2597.86
738.928	2597.54
739.258	2598.42
739.589	2597.31
739.919	2597.62
740.249	2599.54
740.579	2598.06
740.909	2596.97
741.239	2600.04
741.569	2599.95
741.899	2600.59
742.228	2598.58
742.558	2599.14
742.888	2598.16
743.217	2598.87
743.547	2598.32
743.877	2598.14
744.206	2598.15
744.535	2597.02
744.865	2598.31
745.194	2600.28
745.523	2597.44
745.853	2597.85
746.182	2597.96
746.511	2597.15
746.84	2596.94
747.169	2597.72
747.498	2595.53
747.827	2598.58
748.156	2597.59
748.485	2598.34
748.814	2598.88
749.142	2597.12
749.471	2597.95
749.8	2598.97
750.128	2597.92
750.457	2596.39
750.785	2598.75
751.114	2595.23
751.442	2595.4
751.771	2594.88
752.099	2596.34
752.427	2600.11
752.755	2598.2
753.083	2599.75
753.412	2596.08
753.74	2598.58
754.068	2598.25
754.396	2597.95
754.723	2598.24
755.051	2597.63
755.379	2597.15
755.707	2597.79
756.035	2597.32
756.362	2598.79
756.69	2600.37
757.017	2598.24
757.345	2598.39
757.672	2598.15
758	2596.98
758.327	2597.53
758.654	2595.08
758.982	2598.9
759.309	2595.04
759.636	2596.23
759.963	2594.63
760.29	2597.77
760.617	2596.81
760.944	2598.42
761.271	2597.03
761.598	2598.5
761.924	2596.27
762.251	2596.2
762.578	2597.62
762.905	2597.94
763.231	2597.08
763.558	2597.11
763.884	2595.85
764.211	2596.36
764.537	2598.44
764.863	2594.38
765.19	2596.08
765.516	2596.85
765.842	2597.62
766.168	2594.9
766.494	2597.21
766.82	2595.22
767.146	2596.8
767.472	2592.96
767.798	2593.74
768.124	2594.21
768.45	2592.79
768.776	2596.83
769.101	2596.44
769.427	2596.64
769.752	2595.42
770.078	2596.8
770.404	2596.22
770.729	2596.76
771.054	2596.85
771.38	2596.65
771.705	2597.32
772.03	2595.7
772.355	2595.68
772.681	2596.25
773.006	2595.31
773.331	2594.95
773.656	2596.16
773.981	2592.21
774.305	2598.23
774.63	2595.83
774.955	2595.36
775.28	2597.47
775.604	2596.54
775.929	2595.72
776.254	2593.02
776.578	2594.2
